t / s	&j / arb.u.
0,03	-0,52
0,08	-0,48
0,13	-0,53
0,18	-0,48
0,23	-0,53
0,28	-0,49
0,33	-0,52
0,38	-0,49
0,43	-0,52
0,48	-0,49
0,53	-0,52
0,58	-0,48
0,63	-0,53
0,68	-0,48
0,73	-0,52
0,78	-0,49
0,83	-0,53
0,88	-0,49
0,93	-0,52
0,98	-0,49
1,03	-0,52
1,08	-0,67
1,13	-1,67
1,18	-3,38
1,23	-5,64
1,28	-8,52
1,33	-12,30
1,38	-16,71
1,43	-21,35
1,48	-26,15
1,53	-31,02
1,58	-35,40
1,63	-39,46
1,68	-43,37
1,73	-47,65
1,78	-51,91
1,83	-55,93
1,88	-59,92
1,93	-63,89
1,98	-67,04
2,03	-69,44
2,08	-71,27
2,13	-72,49
2,18	-73,21
2,23	-73,78
2,28	-74,06
2,33	-74,34
2,38	-74,47
2,43	-74,83
2,48	-75,25
2,53	-75,92
2,58	-76,21
2,63	-76,32
2,68	-76,43
2,73	-76,55
2,78	-76,54
2,83	-76,57
2,88	-76,54
2,93	-76,58
2,98	-76,55
3,03	-76,58
3,08	-76,60
3,13	-75,99
3,18	-73,70
3,23	-70,08
3,28	-65,40
3,33	-59,94
3,38	-53,84
3,43	-47,44
3,48	-40,92
3,53	-34,59
3,58	-28,37
3,63	-22,58
3,68	-17,21
3,73	-12,31
3,78	-7,82
3,83	-4,02
3,88	-0,70
3,93	2,01
3,98	4,19
4,03	5,92
4,08	7,28
4,13	8,20
4,18	8,84
4,23	9,09
4,28	9,18
4,33	9,10
4,38	8,81
4,43	8,27
4,48	7,68
4,53	6,95
4,58	6,23
4,63	5,42
4,68	4,67
4,73	3,88
4,78	3,23
4,83	2,57
4,88	1,96
4,93	1,37
4,98	0,88
5,03	0,39
5,08	0,02
5,13	-0,36
5,18	-0,60
5,23	-0,86
5,28	-1,02
5,33	-1,19
5,38	-1,26
5,43	-1,37
5,48	-1,38
5,53	-1,43
5,58	-1,39
5,63	-1,42
5,68	-1,39
5,73	-1,42
5,78	-1,38
5,83	-1,36
5,88	-1,26
5,93	-1,22
5,98	-1,12
6,03	-1,08
6,08	-1,01
6,13	-0,98
6,18	-0,90
6,23	-0,87
6,28	-0,84
6,33	-0,82
6,38	-0,78
6,43	-0,75
6,48	-0,74
6,53	-0,74
6,58	-0,73
6,63	-0,73
6,68	-0,67
6,73	-0,68
6,78	-0,67
6,83	-0,68
6,88	-0,67
6,93	-0,68
6,98	-0,66
7,03	-0,67
7,08	-0,67
7,13	-0,68
7,18	-0,67
7,23	-0,68
7,28	-0,67
7,33	-0,68
7,38	-0,68
7,43	-0,68
7,48	-0,68
7,53	-0,68
7,58	-0,67
7,63	-0,67
7,68	-0,68
7,73	-0,67
7,78	-0,69
7,83	-0,68
7,88	-0,68
7,93	-0,67
7,98	-0,67
8,03	-0,67
8,08	-0,67
8,13	-0,67
8,18	-0,68
8,23	-0,67
8,28	-0,68
8,33	-0,67
8,38	-0,68
8,43	-0,67
8,48	-0,68
8,53	-0,67
8,58	-0,68
8,63	-0,67
8,68	-0,68
8,73	-0,67
8,78	-0,68
8,83	-0,67
8,88	-0,69
8,93	-0,66
8,98	-0,68
9,03	-0,66
9,08	-0,69
9,13	-0,66
9,18	-0,68
9,23	-0,67
9,28	-0,69
9,33	-0,66
9,38	-0,69
9,43	-0,66
9,48	-0,69
9,53	-0,66
9,58	-0,69
9,63	-0,67
9,68	-0,69
9,73	-0,67
9,78	-0,69
9,83	-0,66
9,88	-0,69
9,93	-0,66
9,98	-0,69
